##TITLE=TEST
##JCAMP-DX=4.24
##DATA TYPE=TGA
##ORIGIN=
##OWNER=
##XUNITS=Ts [Â°C]
##YUNITS=Value [mg]
##FIRSTX=41.025
##LASTX=662.535
##FIRSTY=6.70697
##LASTY=17.2068
##NPOINTS=2251
##$cheminfoFlavor=weightversustemperature
##PEAK TABLE=(XY..XY)
41.028 17.2039
41.025 17.2038
41.081 17.2037
41.271 17.2035
41.571 17.2034
41.893 17.2033
42.192 17.2032
42.535 17.2032
42.948 17.2033
43.361 17.2034
43.805 17.2036
44.269 17.2038
44.727 17.2042
45.225 17.2045
45.71 17.2049
46.206 17.2053
46.705 17.2056
47.208 17.206
47.722 17.2063
48.246 17.2065
48.746 17.2066
49.249 17.2067
49.751 17.2068
50.27 17.2068
50.783 17.2068
51.285 17.2067
51.804 17.2066
52.317 17.2065
52.826 17.2063
53.341 17.2062
53.854 17.206
54.357 17.2059
54.861 17.2058
55.369 17.2057
55.879 17.2055
56.395 17.2054
56.902 17.2054
57.403 17.2053
57.909 17.2052
58.405 17.2051
58.908 17.2051
59.421 17.205
59.932 17.205
60.427 17.2049
60.918 17.2049
61.439 17.2049
61.929 17.2048
62.441 17.2048
62.932 17.2047
63.446 17.2047
63.947 17.2047
64.44 17.2046
64.947 17.2046
65.456 17.2045
65.946 17.2045
66.454 17.2044
66.951 17.2043
67.447 17.2043
67.947 17.2042
68.459 17.2042
68.95 17.2041
69.457 17.204
69.953 17.204
70.453 17.2039
70.952 17.2038
71.453 17.2038
71.955 17.2037
72.451 17.2037
72.963 17.2036
73.465 17.2036
73.952 17.2035
74.464 17.2035
74.954 17.2034
75.46 17.2034
75.959 17.2033
76.453 17.2033
76.957 17.2032
77.442 17.2032
77.949 17.2031
78.454 17.203
78.95 17.203
79.444 17.2029
79.961 17.2028
80.445 17.2028
80.948 17.2027
81.445 17.2026
81.948 17.2025
82.444 17.2024
82.949 17.2023
83.455 17.2023
83.945 17.2022
84.444 17.2021
84.95 17.202
85.441 17.2019
85.932 17.2018
86.44 17.2017
86.94 17.2015
87.452 17.2014
87.942 17.2013
88.426 17.2012
88.939 17.2011
89.43 17.2009
89.938 17.2008
90.427 17.2007
90.931 17.2006
91.437 17.2004
91.937 17.2003
92.439 17.2001
92.926 17.2
93.437 17.1999
93.934 17.1997
94.429 17.1996
94.93 17.1995
95.438 17.1993
95.929 17.1992
96.431 17.199
96.94 17.1989
97.427 17.1987
97.94 17.1986
98.435 17.1985
98.939 17.1983
99.438 17.1981
99.932 17.198
100.434 17.1978
100.925 17.1976
101.434 17.1975
101.92 17.1973
102.43 17.1971
102.943 17.1969
103.43 17.1968
103.933 17.1966
104.426 17.1964
104.931 17.1962
105.429 17.196
105.946 17.1957
106.435 17.1955
106.941 17.1953
107.446 17.1951
107.96 17.1949
108.448 17.1947
108.956 17.1945
109.451 17.1943
109.964 17.1941
110.461 17.1939
110.964 17.1937
111.474 17.1934
111.971 17.1932
112.486 17.193
112.977 17.1928
113.475 17.1925
113.974 17.1923
114.484 17.192
114.982 17.1917
115.493 17.1914
115.999 17.1912
116.49 17.1909
117.008 17.1906
117.507 17.1903
118.021 17.1901
118.518 17.1898
119.021 17.1895
119.514 17.1892
120.035 17.189
120.535 17.1887
121.025 17.1884
121.536 17.1882
122.044 17.1879
122.55 17.1876
123.06 17.1874
123.573 17.1871
124.065 17.1869
124.581 17.1866
125.077 17.1863
125.59 17.186
126.094 17.1858
126.604 17.1855
127.108 17.1851
127.609 17.1848
128.127 17.1845
128.627 17.1842
129.13 17.1838
129.64 17.1835
130.159 17.1831
130.651 17.1828
131.167 17.1824
131.678 17.182
132.176 17.1816
132.684 17.1813
133.196 17.1809
133.703 17.1805
134.207 17.1801
134.712 17.1797
135.227 17.1793
135.73 17.1789
136.237 17.1785
136.738 17.1781
137.249 17.1777
137.757 17.1773
138.263 17.1768
138.778 17.1764
139.288 17.176
139.792 17.1756
140.298 17.1752
140.813 17.1747
141.324 17.1743
141.828 17.1738
142.335 17.1734
142.846 17.1729
143.36 17.1725
143.846 17.172
144.371 17.1715
144.878 17.171
145.388 17.1705
145.906 17.17
146.4 17.1695
146.912 17.1689
147.419 17.1684
147.925 17.1678
148.432 17.1672
148.947 17.1665
149.447 17.1659
149.961 17.1652
150.48 17.1644
150.992 17.1636
151.486 17.1628
151.994 17.1619
152.498 17.161
153.015 17.16
153.516 17.159
154.033 17.1579
154.533 17.1568
155.058 17.1557
155.567 17.1546
156.076 17.1534
156.581 17.1522
157.103 17.151
157.605 17.1497
158.12 17.1485
158.647 17.1473
159.157 17.146
159.666 17.1448
160.18 17.1436
160.694 17.1424
161.217 17.1411
161.723 17.1399
162.229 17.1387
162.752 17.1375
163.257 17.1363
163.773 17.1351
164.297 17.134
164.796 17.1328
165.325 17.1316
165.826 17.1305
166.333 17.1294
166.865 17.1282
167.376 17.1271
167.892 17.126
168.405 17.1249
168.927 17.1238
169.432 17.1226
169.956 17.1215
170.476 17.1204
170.993 17.1193
171.497 17.1181
172.012 17.117
172.521 17.1158
173.043 17.1146
173.557 17.1135
174.075 17.1123
174.591 17.1111
175.106 17.1099
175.62 17.1087
176.135 17.1075
176.655 17.1063
177.173 17.1051
177.692 17.1039
178.2 17.1026
178.719 17.1014
179.242 17.1002
179.763 17.0989
180.275 17.0977
180.789 17.0964
181.308 17.0951
181.816 17.0938
182.328 17.0926
182.858 17.0913
183.371 17.0899
183.894 17.0886
184.41 17.0873
184.925 17.086
185.442 17.0846
185.973 17.0832
186.484 17.0818
187.001 17.0804
187.518 17.079
188.044 17.0776
188.555 17.0761
189.08 17.0746
189.589 17.0731
190.112 17.0716
190.629 17.07
191.144 17.0684
191.667 17.0668
192.197 17.0651
192.718 17.0635
193.233 17.0618
193.756 17.06
194.282 17.0582
194.799 17.0564
195.306 17.0546
195.845 17.0527
196.356 17.0508
196.867 17.0489
197.39 17.047
197.912 17.045
198.44 17.0429
198.96 17.0409
199.471 17.0388
199.993 17.0367
200.524 17.0346
201.039 17.0324
201.565 17.0302
202.077 17.028
202.597 17.0257
203.117 17.0234
203.64 17.0211
204.15 17.0187
204.684 17.0163
205.206 17.0139
205.728 17.0115
206.254 17.009
206.776 17.0065
207.301 17.004
207.828 17.0014
208.335 16.9988
208.874 16.9962
209.386 16.9936
209.914 16.9909
210.425 16.9882
210.955 16.9854
211.474 16.9826
212.004 16.9798
212.53 16.977
213.054 16.9741
213.577 16.9712
214.102 16.9683
214.623 16.9654
215.143 16.9624
215.669 16.9594
216.188 16.9564
216.708 16.9534
217.231 16.9504
217.74 16.9473
218.275 16.9443
218.795 16.9412
219.312 16.9382
219.84 16.9351
220.356 16.9321
220.869 16.929
221.38 16.926
221.901 16.9229
222.415 16.9199
222.943 16.9169
223.455 16.9139
223.98 16.9109
224.488 16.908
225.008 16.905
225.506 16.9021
226.03 16.8992
226.553 16.8964
227.073 16.8935
227.581 16.8907
228.105 16.8879
228.623 16.8851
229.128 16.8824
229.649 16.8797
230.164 16.877
230.677 16.8743
231.194 16.8717
231.699 16.8691
232.216 16.8665
232.733 16.8639
233.251 16.8613
233.767 16.8588
234.279 16.8562
234.782 16.8537
235.306 16.8512
235.807 16.8487
236.333 16.8462
236.843 16.8437
237.363 16.8412
237.87 16.8387
238.387 16.8362
238.899 16.8338
239.412 16.8313
239.928 16.8288
240.452 16.8264
240.967 16.8239
241.476 16.8215
241.992 16.819
242.505 16.8166
243.018 16.8142
243.532 16.8117
244.047 16.8093
244.545 16.8069
245.079 16.8044
245.592 16.802
246.101 16.7996
246.614 16.7971
247.123 16.7947
247.646 16.7923
248.165 16.7898
248.672 16.7874
249.18 16.7849
249.7 16.7825
250.222 16.78
250.73 16.7776
251.249 16.7751
251.757 16.7727
252.282 16.7702
252.789 16.7677
253.294 16.7652
253.821 16.7628
254.336 16.7603
254.852 16.7578
255.357 16.7553
255.879 16.7528
256.4 16.7503
256.915 16.7478
257.426 16.7453
257.939 16.7427
258.455 16.7402
258.96 16.7376
259.477 16.7351
259.992 16.7325
260.51 16.7299
261.02 16.7273
261.536 16.7247
262.045 16.7221
262.566 16.7195
263.071 16.7169
263.591 16.7143
264.109 16.7116
264.624 16.709
265.133 16.7063
265.64 16.7037
266.16 16.701
266.672 16.6983
267.192 16.6956
267.696 16.6929
268.204 16.6902
268.726 16.6875
269.24 16.6848
269.75 16.682
270.256 16.6793
270.778 16.6765
271.293 16.6737
271.803 16.671
272.318 16.6682
272.839 16.6654
273.346 16.6625
273.862 16.6597
274.378 16.6569
274.886 16.654
275.402 16.6512
275.915 16.6483
276.439 16.6454
276.939 16.6425
277.454 16.6396
277.967 16.6367
278.48 16.6338
278.986 16.6308
279.498 16.6279
280.019 16.6249
280.526 16.6219
281.048 16.6189
281.556 16.6159
282.066 16.6129
282.577 16.6099
283.086 16.6069
283.593 16.6038
284.105 16.6008
284.627 16.5977
285.138 16.5946
285.646 16.5916
286.173 16.5885
286.685 16.5854
287.19 16.5823
287.698 16.5792
288.216 16.5761
288.728 16.5729
289.241 16.5698
289.759 16.5667
290.262 16.5635
290.778 16.5604
291.29 16.5572
291.809 16.554
292.31 16.5509
292.822 16.5477
293.346 16.5445
293.839 16.5413
294.352 16.5381
294.858 16.5349
295.379 16.5316
295.891 16.5284
296.401 16.5252
296.914 16.522
297.418 16.5187
297.929 16.5155
298.439 16.5122
298.95 16.509
299.468 16.5057
299.979 16.5025
300.491 16.4992
301.001 16.496
301.507 16.4927
302.018 16.4894
302.529 16.4862
303.027 16.4829
303.542 16.4796
304.058 16.4764
304.563 16.4731
305.074 16.4698
305.599 16.4666
306.097 16.4633
306.607 16.46
307.123 16.4568
307.633 16.4535
308.143 16.4502
308.652 16.447
309.167 16.4437
309.666 16.4404
310.176 16.4371
310.681 16.4338
311.194 16.4305
311.702 16.4273
312.219 16.4239
312.727 16.4206
313.236 16.4173
313.749 16.414
314.251 16.4107
314.765 16.4073
315.269 16.404
315.79 16.4007
316.288 16.3973
316.795 16.394
317.305 16.3906
317.815 16.3872
318.319 16.3839
318.828 16.3805
319.347 16.3771
319.854 16.3737
320.364 16.3703
320.868 16.3669
321.379 16.3635
321.886 16.36
322.407 16.3566
322.912 16.3531
323.412 16.3496
323.926 16.3461
324.43 16.3426
324.941 16.3391
325.453 16.3355
325.959 16.332
326.466 16.3284
326.97 16.3248
327.488 16.3211
327.989 16.3175
328.503 16.3138
329.012 16.3101
329.516 16.3064
330.03 16.3027
330.53 16.2989
331.037 16.2951
331.553 16.2913
332.053 16.2874
332.568 16.2835
333.071 16.2796
333.578 16.2757
334.09 16.2717
334.593 16.2677
335.102 16.2636
335.611 16.2595
336.118 16.2553
336.626 16.2511
337.133 16.2469
337.638 16.2426
338.145 16.2382
338.661 16.2338
339.164 16.2294
339.671 16.2248
340.176 16.2202
340.686 16.2156
341.195 16.2109
341.703 16.2061
342.211 16.2012
342.724 16.1963
343.234 16.1913
343.74 16.1862
344.246 16.181
344.745 16.1757
345.252 16.1703
345.765 16.1649
346.274 16.1593
346.786 16.1536
347.293 16.1478
347.796 16.1419
348.299 16.1359
348.811 16.1298
349.314 16.1235
349.821 16.1171
350.327 16.1106
350.839 16.104
351.335 16.0972
351.856 16.0902
352.357 16.0831
352.863 16.0758
353.371 16.0684
353.874 16.0608
354.389 16.053
354.898 16.0451
355.404 16.0369
355.902 16.0286
356.417 16.02
356.923 16.0113
357.426 16.0023
357.935 15.9931
358.44 15.9836
358.943 15.9739
359.449 15.964
359.947 15.9538
360.454 15.9433
360.975 15.9326
361.478 15.9216
361.977 15.9102
362.485 15.8986
362.989 15.8866
363.509 15.8744
364.016 15.8618
364.518 15.8488
365.02 15.8355
365.522 15.8219
366.032 15.8078
366.535 15.7934
367.043 15.7785
367.554 15.7633
368.059 15.7476
368.564 15.7315
369.068 15.715
369.575 15.698
370.067 15.6805
370.583 15.6626
371.083 15.6441
371.599 15.6252
372.096 15.6056
372.59 15.5856
373.101 15.565
373.613 15.5439
374.11 15.5221
374.612 15.4997
375.113 15.4768
375.617 15.4533
376.121 15.429
376.63 15.4042
377.116 15.3787
377.629 15.3526
378.127 15.3257
378.626 15.2982
379.136 15.27
379.635 15.2411
380.141 15.2114
380.647 15.1811
381.14 15.1501
381.65 15.1183
382.154 15.0857
382.646 15.0525
383.149 15.0185
383.648 14.9838
384.153 14.9482
384.649 14.9121
385.145 14.8751
385.656 14.8375
386.151 14.799
386.646 14.7599
387.155 14.7202
387.642 14.6797
388.145 14.6384
388.647 14.5966
389.141 14.5541
389.646 14.511
390.136 14.4672
390.639 14.4228
391.148 14.3778
391.638 14.3323
392.136 14.2862
392.635 14.2396
393.127 14.1926
393.63 14.145
394.122 14.097
394.623 14.0485
395.116 13.9997
395.619 13.9505
396.112 13.9009
396.611 13.8511
397.115 13.8009
397.597 13.7505
398.1 13.6998
398.597 13.649
399.096 13.5979
399.59 13.5468
400.095 13.4954
400.583 13.4441
401.085 13.3927
401.589 13.3412
402.071 13.2898
402.569 13.2384
403.062 13.187
403.564 13.1357
404.056 13.0845
404.546 13.0335
405.041 12.9826
405.541 12.9319
406.039 12.8815
406.534 12.8312
407.027 12.7812
407.524 12.7315
408.027 12.6821
408.51 12.633
409.01 12.5842
409.503 12.5357
410.005 12.4877
410.495 12.4401
410.991 12.3928
411.484 12.3459
411.988 12.2995
412.477 12.2535
412.974 12.2078
413.468 12.1625
413.962 12.1177
414.456 12.0733
414.956 12.0291
415.438 11.9854
415.934 11.942
416.431 11.8989
416.921 11.8561
417.414 11.8136
417.915 11.7714
418.401 11.7294
418.887 11.6877
419.38 11.6462
419.883 11.605
420.365 11.5641
420.862 11.5234
421.353 11.4829
421.851 11.4428
422.346 11.4029
422.83 11.3632
423.326 11.3238
423.818 11.2848
424.321 11.246
424.813 11.2074
425.306 11.1692
425.803 11.1313
426.298 11.0937
426.793 11.0564
427.283 11.0194
427.788 10.9828
428.285 10.9464
428.773 10.9103
429.267 10.8745
429.768 10.8391
430.255 10.804
430.766 10.7691
431.257 10.7346
431.755 10.7004
432.245 10.6664
432.741 10.6328
433.253 10.5994
433.749 10.5663
434.242 10.5335
434.745 10.501
435.243 10.4688
435.757 10.4369
436.248 10.4053
436.743 10.3739
437.247 10.3427
437.753 10.3119
438.244 10.2814
438.751 10.251
439.254 10.221
439.759 10.1912
440.259 10.1616
440.754 10.1323
441.249 10.1032
441.757 10.0745
442.258 10.0459
442.752 10.0176
443.255 9.98955
443.753 9.9618
444.256 9.9343
444.761 9.90706
445.252 9.88008
445.752 9.85344
446.255 9.82704
446.76 9.80093
447.265 9.77509
447.764 9.7496
448.264 9.72437
448.761 9.69943
449.262 9.67479
449.758 9.65052
450.265 9.62652
450.767 9.60284
451.269 9.57947
451.768 9.55649
452.265 9.53381
452.763 9.51147
453.265 9.48947
453.773 9.4679
454.274 9.44666
454.771 9.42579
455.274 9.40528
455.775 9.38522
456.276 9.36551
456.77 9.34618
457.28 9.32725
457.774 9.30878
458.278 9.29069
458.779 9.273
459.282 9.25572
459.782 9.23892
460.277 9.22251
460.791 9.20651
461.282 9.19092
461.786 9.17584
462.272 9.16114
462.787 9.14686
463.278 9.13299
463.78 9.11963
464.282 9.10666
464.788 9.09411
465.298 9.08198
465.789 9.07034
466.291 9.05909
466.801 9.04823
467.298 9.03779
467.798 9.02781
468.301 9.01818
468.8 9.00894
469.304 9.00008
469.798 8.99165
470.304 8.98354
470.794 8.97578
471.301 8.96836
471.797 8.96133
472.301 8.95457
472.799 8.94813
473.292 8.94198
473.787 8.93617
474.29 8.93059
474.784 8.92529
475.282 8.92023
475.776 8.91546
476.277 8.9109
476.768 8.90655
477.257 8.90241
477.77 8.89851
478.264 8.89477
478.763 8.89122
479.263 8.88783
479.767 8.88464
480.257 8.88158
480.746 8.87866
481.25 8.87588
481.745 8.87325
482.24 8.87073
482.737 8.86831
483.243 8.86601
483.733 8.86383
484.228 8.86172
484.725 8.85971
485.222 8.85778
485.718 8.85594
486.211 8.85417
486.713 8.85247
487.203 8.85084
487.701 8.84928
488.2 8.84778
488.689 8.84633
489.185 8.84494
489.681 8.84361
490.178 8.84232
490.672 8.84108
491.169 8.83989
491.658 8.83875
492.152 8.83764
492.653 8.83658
493.148 8.83555
493.647 8.83457
494.134 8.83361
494.627 8.83269
495.118 8.8318
495.61 8.83094
496.105 8.83011
496.598 8.8293
497.082 8.82853
497.583 8.82778
498.079 8.82706
498.567 8.82636
499.07 8.82568
499.558 8.82503
500.056 8.8244
500.548 8.8238
501.042 8.82321
501.542 8.82263
502.034 8.82207
502.52 8.82152
503.022 8.82099
503.514 8.82046
504.011 8.81994
504.499 8.81942
504.99 8.81891
505.482 8.8184
505.974 8.81789
506.468 8.81738
506.967 8.81688
507.456 8.81638
507.948 8.81589
508.438 8.8154
508.932 8.81492
509.418 8.81445
509.919 8.81397
510.404 8.81351
510.899 8.81304
511.394 8.81258
511.886 8.81213
512.376 8.81167
512.876 8.81122
513.368 8.81078
513.859 8.81033
514.355 8.80988
514.84 8.80944
515.334 8.809
515.823 8.80856
516.323 8.80812
516.813 8.80768
517.312 8.80724
517.806 8.8068
518.293 8.80636
518.785 8.80592
519.28 8.80548
519.766 8.80505
520.266 8.80461
520.757 8.80417
521.245 8.80373
521.73 8.80329
522.237 8.80285
522.725 8.80241
523.211 8.80197
523.709 8.80153
524.197 8.8011
524.7 8.80066
525.181 8.80022
525.677 8.79978
526.161 8.79934
526.658 8.7989
527.152 8.79847
527.657 8.79803
528.143 8.79759
528.642 8.79715
529.131 8.79671
529.616 8.79627
530.109 8.79582
530.605 8.79538
531.097 8.79494
531.593 8.7945
532.079 8.79405
532.573 8.79361
533.073 8.79316
533.56 8.79272
534.054 8.79228
534.533 8.79183
535.033 8.79138
535.527 8.79094
536.006 8.79049
536.512 8.79004
537.003 8.7896
537.493 8.78915
537.981 8.7887
538.477 8.78824
538.972 8.78779
539.458 8.78733
539.966 8.78687
540.447 8.78641
540.941 8.78595
541.427 8.78548
541.921 8.78502
542.413 8.78456
542.906 8.78409
543.401 8.78363
543.89 8.78318
544.383 8.78272
544.885 8.78227
545.373 8.78183
545.867 8.78139
546.363 8.78095
546.859 8.78051
547.344 8.78008
547.836 8.77964
548.325 8.77921
548.817 8.77877
549.309 8.77832
549.808 8.77788
550.295 8.77742
550.794 8.77696
551.284 8.77649
551.769 8.77602
552.257 8.77553
552.757 8.77505
553.242 8.77456
553.732 8.77407
554.228 8.77357
554.716 8.77308
555.212 8.77259
555.704 8.7721
556.195 8.7716
556.687 8.77111
557.175 8.77062
557.67 8.77013
558.161 8.76964
558.644 8.76916
559.141 8.76867
559.629 8.76819
560.119 8.76771
560.612 8.76723
561.114 8.76675
561.599 8.76628
562.086 8.7658
562.574 8.76533
563.074 8.76486
563.572 8.76438
564.059 8.76391
564.551 8.76344
565.045 8.76297
565.536 8.76249
566.031 8.76202
566.519 8.76153
567.012 8.76105
567.501 8.76056
567.994 8.76007
568.484 8.75958
568.975 8.75909
569.47 8.75859
569.963 8.75809
570.452 8.75759
570.946 8.75709
571.438 8.75659
571.923 8.75608
572.418 8.75558
572.907 8.75508
573.398 8.75458
573.888 8.75408
574.382 8.75357
574.876 8.75307
575.367 8.75257
575.855 8.75207
576.349 8.75157
576.84 8.75107
577.332 8.75058
577.814 8.75008
578.311 8.74958
578.807 8.74908
579.293 8.74858
579.783 8.74809
580.272 8.74758
580.77 8.74708
581.257 8.74658
581.754 8.74607
582.237 8.74556
582.73 8.74505
583.226 8.74454
583.721 8.74402
584.209 8.7435
584.699 8.74298
585.196 8.74245
585.681 8.74192
586.179 8.7414
586.665 8.74087
587.162 8.74034
587.649 8.73981
588.149 8.73929
588.634 8.73877
589.122 8.73825
589.61 8.73774
590.103 8.73722
590.598 8.73671
591.092 8.7362
591.577 8.7357
592.071 8.73519
592.57 8.73468
593.05 8.73417
593.541 8.73366
594.036 8.73315
594.527 8.73262
595.02 8.73209
595.512 8.73156
596.007 8.73102
596.499 8.73048
596.985 8.72994
597.484 8.72939
597.968 8.72885
598.456 8.7283
598.949 8.72775
599.441 8.7272
599.93 8.72665
600.427 8.7261
600.911 8.72556
601.401 8.72501
601.897 8.72447
602.396 8.72394
602.881 8.72341
603.368 8.72287
603.862 8.72234
604.354 8.7218
604.846 8.72127
605.335 8.72073
605.825 8.7202
606.324 8.71967
606.809 8.71913
607.308 8.71859
607.79 8.71805
608.277 8.7175
608.774 8.71696
609.267 8.71641
609.755 8.71586
610.244 8.71531
610.733 8.71476
611.228 8.7142
611.724 8.71365
612.218 8.7131
612.704 8.71254
613.199 8.71199
613.689 8.71143
614.184 8.71087
614.668 8.71031
615.164 8.70975
615.649 8.70918
616.142 8.70862
616.634 8.70805
617.131 8.70747
617.621 8.7069
618.109 8.70633
618.599 8.70575
619.082 8.70518
619.581 8.70461
620.074 8.70403
620.559 8.70345
621.058 8.70287
621.547 8.70229
622.044 8.70171
622.539 8.70113
623.025 8.70055
623.517 8.69997
624.008 8.6994
624.506 8.69883
624.996 8.69825
625.491 8.69768
625.978 8.69709
626.465 8.69651
626.956 8.69593
627.445 8.69535
627.938 8.69477
628.43 8.69419
628.92 8.69361
629.408 8.69303
629.898 8.69245
630.398 8.69187
630.886 8.69128
631.378 8.69069
631.871 8.69011
632.355 8.68952
632.856 8.68894
633.349 8.68836
633.83 8.68778
634.322 8.68721
634.826 8.68663
635.304 8.68606
635.798 8.68548
636.286 8.68489
636.781 8.68431
637.284 8.68372
637.77 8.68314
638.263 8.68256
638.748 8.68198
639.329 8.6814
639.776 8.68081
640.083 8.68023
640.422 8.67964
640.77 8.67905
641.133 8.67846
641.491 8.67786
641.834 8.67725
642.162 8.67665
642.477 8.67604
642.784 8.67543
643.067 8.67482
643.352 8.6742
643.619 8.67359
643.887 8.67298
644.129 8.67237
644.368 8.67176
644.604 8.67117
644.83 8.67058
645.045 8.67
645.257 8.66942
645.458 8.66886
645.657 8.66829
645.843 8.66773
646.031 8.66718
646.218 8.66662
646.385 8.66607
646.554 8.66552
646.718 8.66498
646.88 8.66444
647.029 8.6639
647.178 8.66337
647.326 8.66285
647.473 8.66233
647.61 8.66181
647.748 8.6613
647.871 8.66079
647.995 8.66028
648.129 8.65977
648.246 8.65927
648.354 8.65876
648.47 8.65825
648.58 8.65774
648.692 8.65722
648.794 8.6567
648.898 8.65618
649.008 8.65565
649.1 8.65512
649.197 8.65458
649.285 8.65405
649.383 8.65352
649.465 8.65299
649.547 8.65246
649.644 8.65194
649.717 8.65141
649.792 8.65089
649.866 8.65037
649.944 8.64985
650.022 8.64933
650.094 8.64881
650.168 8.64829
650.225 8.64778
650.298 8.64726
650.356 8.64675
650.428 8.64624
